Current (mA)
0.00127719
0.00132296
0.000800349
0.00227664 
0.00151751
0.00147937
0.00196765
0.00240252
0.000464656
0.001178
0.00127719
0.000998713
0.00153659
0.00202487
0.00167391
0.00162814
0.00112841
0.00167773
0.00108264
0.00254367
3.19571
3.18354
3.23833
3.25172
3.22615
3.24441
3.2505
3.23346
3.24198
3.24441
3.24807
3.24685
3.23589
3.24563
3.2505
3.22493
3.25415
3.25294 
3.23954
3.2298 
3.22737
3.25294
3.2225 
3.24076 
3.2432
3.26389
3.23954
3.25172 
3.2432 
3.24441
3.22737 
3.23589
3.23467
3.22493
3.24807 
3.25902 
3.21885
3.1178 
3.11658
3.11901
3.13971
3.09954 
3.11293 
3.23467 
3.24807
3.24685 
3.23589 
3.24441 
3.23224
3.25415
3.24076 
3.25294 
3.25537
3.24807 
3.22615 
3.23954 
3.23224 
3.25294 
3.23224
3.22859
3.22859 
3.21398 
3.24076 
3.25172 
3.24198 
3.24685
3.25294
3.22859
3.23711
3.23589
3.23346 
3.2505
3.23711 
3.23711
3.2505 
3.23224 
3.2432
3.23833
3.26389
3.26998
3.24441
0.00132678
0.00205538
0.00117419
0.00168917
0.000945308
0.00155566
0.00144122
0.00137255
0.00133059